# https://webbook.nist.gov/cgi/fluid.cgi?Action=Data&Wide=on&ID=C7732185&Type=SatP&Digits=5&THigh=310&TLow=5&TInc=1&RefState=DEF&TUnit=C&PUnit=MPa&DUnit=mol%2Fl&HUnit=kJ%2Fmol&WUnit=m%2Fs&VisUnit=uPa*s&STUnit=N%2Fm
#
Temperature (C)	Pressure (MPa)	Density (l, mol/l)	Volume (l, l/mol)	Internal Energy (l, kJ/mol)	Enthalpy (l, kJ/mol)	Entropy (l, J/mol*K)	Cv (l, J/mol*K)	Cp (l, J/mol*K)	Sound Spd. (l, m/s)	Joule-Thomson (l, K/MPa)	Viscosity (l, uPa*s)	Therm. Cond. (l, W/m*K)	Surf. Tension (l, N/m)	Density (v, mol/l)	Volume (v, l/mol)	Internal Energy (v, kJ/mol)	Enthalpy (v, kJ/mol)	Entropy (v, J/mol*K)	Cv (v, J/mol*K)	Cp (v, J/mol*K)	Sound Spd. (v, m/s)	Joule-Thomson (v, K/MPa)	Viscosity (v, uPa*s)	Therm. Cond. (v, W/m*K)
5.0000	0.00087258	55.504	0.018017	0.37866	0.37868	1.3737	75.760	75.763	1426.0	-0.23676	1518.3	0.56772	0.074942	0.00037758	2648.4	42.908	45.219	162.58	25.628	34.038	412.60	505.82	9.0902	0.017083
6.0000	0.00093536	55.503	0.018017	0.45441	0.45442	1.6456	75.711	75.721	1430.4	-0.23588	1471.6	0.57001	0.074799	0.00040331	2479.5	42.933	45.252	162.13	25.644	34.057	413.32	490.15	9.1196	0.017149
7.0000	0.0010021	55.500	0.018018	0.53011	0.53013	1.9163	75.661	75.683	1434.8	-0.23502	1427.2	0.57225	0.074655	0.00043056	2322.6	42.958	45.285	161.67	25.659	34.076	414.03	475.02	9.1491	0.017214
8.0000	0.0010730	55.498	0.018019	0.60577	0.60579	2.1859	75.609	75.647	1439.0	-0.23417	1384.8	0.57444	0.074511	0.00045940	2176.8	42.983	45.318	161.22	25.675	34.095	414.74	460.42	9.1788	0.017280
9.0000	0.0011483	55.494	0.018020	0.68140	0.68142	2.4544	75.556	75.614	1443.1	-0.23333	1344.5	0.57660	0.074366	0.00048991	2041.2	43.007	45.351	160.77	25.690	34.114	415.46	446.32	9.2085	0.017346
10.000	0.0012282	55.489	0.018021	0.75700	0.75702	2.7219	75.502	75.584	1447.1	-0.23251	1306.0	0.57871	0.074221	0.00052217	1915.1	43.032	45.384	160.33	25.706	34.134	416.17	432.72	9.2384	0.017412
11.000	0.0013130	55.484	0.018023	0.83257	0.83260	2.9883	75.446	75.555	1451.0	-0.23170	1269.2	0.58079	0.074075	0.00055627	1797.7	43.057	45.417	159.89	25.722	34.153	416.88	419.60	9.2685	0.017479
12.000	0.0014028	55.478	0.018025	0.90811	0.90814	3.2537	75.389	75.529	1454.9	-0.23090	1234.1	0.58283	0.073929	0.00059229	1688.4	43.081	45.450	159.46	25.738	34.173	417.58	406.94	9.2986	0.017545
13.000	0.0014981	55.471	0.018027	0.98363	0.98366	3.5180	75.330	75.505	1458.6	-0.23012	1200.5	0.58483	0.073782	0.00063032	1586.5	43.106	45.483	159.03	25.754	34.193	418.29	394.73	9.3289	0.017612
14.000	0.0015990	55.464	0.018030	1.0591	1.0592	3.7814	75.271	75.483	1462.2	-0.22935	1168.4	0.58680	0.073634	0.00067045	1491.5	43.131	45.516	158.60	25.770	34.212	418.99	382.96	9.3593	0.017679
15.000	0.0017058	55.456	0.018032	1.1346	1.1346	4.0438	75.210	75.462	1465.8	-0.22858	1137.6	0.58874	0.073486	0.00071279	1402.9	43.155	45.549	158.18	25.786	34.233	419.69	371.60	9.3898	0.017747
16.000	0.0018188	55.447	0.018035	1.2100	1.2101	4.3052	75.148	75.443	1469.2	-0.22783	1108.1	0.59064	0.073337	0.00075742	1320.3	43.180	45.581	157.76	25.802	34.253	420.39	360.65	9.4204	0.017814
17.000	0.0019384	55.438	0.018038	1.2855	1.2855	4.5656	75.085	75.426	1472.6	-0.22709	1079.8	0.59252	0.073188	0.00080446	1243.1	43.205	45.614	157.34	25.819	34.273	421.09	350.09	9.4512	0.017882
18.000	0.0020647	55.428	0.018041	1.3609	1.3609	4.8251	75.021	75.410	1475.9	-0.22636	1052.7	0.59436	0.073038	0.00085400	1171.0	43.229	45.647	156.93	25.835	34.294	421.79	339.91	9.4820	0.017950
19.000	0.0021983	55.418	0.018045	1.4363	1.4363	5.0836	74.956	75.396	1479.1	-0.22563	1026.7	0.59617	0.072887	0.00090617	1103.5	43.254	45.680	156.52	25.851	34.314	422.49	330.09	9.5130	0.018019
20.000	0.0023393	55.406	0.018048	1.5117	1.5117	5.3412	74.890	75.382	1482.2	-0.22492	1001.6	0.59795	0.072736	0.00096107	1040.5	43.278	45.713	156.12	25.868	34.335	423.18	320.63	9.5441	0.018087
21.000	0.0024882	55.395	0.018052	1.5871	1.5871	5.5979	74.823	75.370	1485.2	-0.22421	977.56	0.59971	0.072584	0.0010188	981.52	43.303	45.745	155.72	25.884	34.356	423.87	311.51	9.5752	0.018156
22.000	0.0026453	55.382	0.018056	1.6624	1.6625	5.8537	74.755	75.359	1488.2	-0.22352	954.42	0.60144	0.072432	0.0010796	926.31	43.328	45.778	155.32	25.901	34.377	424.56	302.71	9.6065	0.018225
23.000	0.0028111	55.370	0.018060	1.7378	1.7378	6.1086	74.686	75.349	1491.0	-0.22283	932.15	0.60314	0.072279	0.0011434	874.60	43.352	45.811	154.93	25.917	34.399	425.25	294.24	9.6379	0.018294
24.000	0.0029858	55.356	0.018065	1.8131	1.8132	6.3626	74.616	75.341	1493.8	-0.22214	910.70	0.60481	0.072126	0.0012104	826.15	43.377	45.843	154.54	25.934	34.420	425.94	286.06	9.6694	0.018364
25.000	0.0031699	55.342	0.018069	1.8885	1.8885	6.6157	74.545	75.333	1496.5	-0.22147	890.04	0.60646	0.071972	0.0012808	780.73	43.401	45.876	154.15	25.951	34.442	426.63	278.19	9.7009	0.018433
26.000	0.0033639	55.328	0.018074	1.9638	1.9639	6.8679	74.474	75.326	1499.2	-0.22080	870.12	0.60808	0.071818	0.0013548	738.14	43.426	45.909	153.77	25.968	34.464	427.31	270.59	9.7326	0.018503
27.000	0.0035681	55.313	0.018079	2.0391	2.0392	7.1193	74.401	75.319	1501.7	-0.22014	850.91	0.60968	0.071663	0.0014323	698.17	43.450	45.941	153.39	25.985	34.486	427.99	263.27	9.7643	0.018573
28.000	0.0037831	55.297	0.018084	2.1144	2.1145	7.3698	74.328	75.314	1504.2	-0.21948	832.38	0.61126	0.071507	0.0015137	660.65	43.474	45.974	153.01	26.002	34.508	428.67	256.21	9.7962	0.018644
29.000	0.0040092	55.281	0.018089	2.1897	2.1898	7.6194	74.253	75.309	1506.6	-0.21884	814.50	0.61281	0.071351	0.0015989	625.42	43.499	46.006	152.64	26.019	34.531	429.35	249.41	9.8281	0.018715
30.000	0.0042470	55.265	0.018095	2.2651	2.2651	7.8683	74.178	75.305	1509.0	-0.21819	797.22	0.61434	0.071194	0.0016883	592.31	43.523	46.039	152.26	26.036	34.553	430.03	242.84	9.8602	0.018786
31.000	0.0044969	55.248	0.018100	2.3404	2.3404	8.1162	74.103	75.302	1511.3	-0.21755	780.54	0.61584	0.071037	0.0017819	561.19	43.548	46.071	151.90	26.054	34.576	430.71	236.52	9.8923	0.018857
32.000	0.0047596	55.230	0.018106	2.4157	2.4157	8.3634	74.026	75.299	1513.5	-0.21692	764.41	0.61733	0.070879	0.0018800	531.93	43.572	46.104	151.53	26.071	34.600	431.38	230.41	9.9245	0.018928
33.000	0.0050354	55.212	0.018112	2.4910	2.4910	8.6098	73.949	75.297	1515.6	-0.21630	748.81	0.61879	0.070721	0.0019826	504.39	43.596	46.136	151.17	26.089	34.623	432.05	224.53	9.9567	0.019000
34.000	0.0053251	55.194	0.018118	2.5663	2.5663	8.8553	73.871	75.296	1517.7	-0.21567	733.72	0.62023	0.070562	0.0020899	478.48	43.621	46.169	150.81	26.107	34.647	432.72	218.85	9.9891	0.019072
35.000	0.0056290	55.175	0.018124	2.6415	2.6416	9.1001	73.792	75.295	1519.7	-0.21506	719.12	0.62165	0.070402	0.0022023	454.08	43.645	46.201	150.46	26.125	34.671	433.39	213.37	10.022	0.019144
36.000	0.0059479	55.156	0.018131	2.7168	2.7169	9.3440	73.713	75.294	1521.6	-0.21444	704.98	0.62305	0.070242	0.0023197	431.09	43.669	46.233	150.11	26.143	34.695	434.06	208.09	10.054	0.019217
37.000	0.0062823	55.136	0.018137	2.7921	2.7922	9.5872	73.633	75.295	1523.5	-0.21384	691.29	0.62442	0.070081	0.0024424	409.43	43.694	46.266	149.76	26.161	34.720	434.73	202.99	10.087	0.019289
38.000	0.0066328	55.116	0.018144	2.8674	2.8675	9.8295	73.552	75.295	1525.3	-0.21323	678.03	0.62578	0.069920	0.0025706	389.01	43.718	46.298	149.41	26.179	34.744	435.39	198.07	10.119	0.019362
39.000	0.0070002	55.095	0.018150	2.9427	2.9428	10.071	73.470	75.296	1527.1	-0.21263	665.18	0.62712	0.069759	0.0027046	369.75	43.742	46.330	149.07	26.198	34.770	436.05	193.32	10.152	0.019436
40.000	0.0073849	55.074	0.018157	3.0180	3.0182	10.312	73.388	75.297	1528.7	-0.21203	652.72	0.62844	0.069596	0.0028444	351.57	43.766	46.362	148.73	26.217	34.795	436.71	188.73	10.185	0.019509
41.000	0.0077878	55.053	0.018164	3.0933	3.0935	10.552	73.306	75.299	1530.4	-0.21144	640.63	0.62973	0.069434	0.0029903	334.41	43.790	46.395	148.39	26.235	34.821	437.37	184.30	10.218	0.019583
42.000	0.0082096	55.031	0.018172	3.1686	3.1688	10.791	73.222	75.301	1531.9	-0.21085	628.91	0.63101	0.069270	0.0031425	318.21	43.814	46.427	148.05	26.255	34.847	438.03	180.03	10.251	0.019657
43.000	0.0086508	55.009	0.018179	3.2439	3.2441	11.030	73.139	75.304	1533.4	-0.21027	617.53	0.63227	0.069106	0.0033013	302.91	43.839	46.459	147.72	26.274	34.874	438.68	175.90	10.284	0.019732
44.000	0.0091124	54.986	0.018186	3.3192	3.3194	11.268	73.054	75.307	1534.9	-0.20968	606.48	0.63351	0.068942	0.0034669	288.44	43.863	46.491	147.39	26.293	34.901	439.33	171.91	10.317	0.019806
45.000	0.0095950	54.963	0.018194	3.3945	3.3947	11.505	72.969	75.310	1536.3	-0.20910	595.75	0.63474	0.068777	0.0036394	274.77	43.887	46.523	147.06	26.313	34.928	439.99	168.05	10.350	0.019881
46.000	0.010099	54.940	0.018202	3.4698	3.4700	11.741	72.884	75.314	1537.6	-0.20853	585.33	0.63594	0.068611	0.0038192	261.84	43.911	46.555	146.74	26.333	34.956	440.63	164.32	10.383	0.019957
47.000	0.010627	54.916	0.018210	3.5452	3.5453	11.977	72.798	75.318	1538.9	-0.20795	575.21	0.63712	0.068445	0.0040064	249.60	43.935	46.587	146.42	26.354	34.984	441.28	160.72	10.416	0.020032
48.000	0.011177	54.892	0.018218	3.6205	3.6207	12.212	72.711	75.322	1540.1	-0.20738	565.37	0.63829	0.068279	0.0042013	238.02	43.959	46.619	146.10	26.374	35.013	441.93	157.24	10.450	0.020108
49.000	0.011752	54.867	0.018226	3.6958	3.6960	12.446	72.624	75.327	1541.3	-0.20681	555.80	0.63944	0.068112	0.0044042	227.05	43.983	46.651	145.78	26.395	35.042	442.57	153.87	10.483	0.020184
50.000	0.012352	54.842	0.018234	3.7711	3.7713	12.679	72.537	75.332	1542.4	-0.20624	546.50	0.64057	0.067944	0.0046154	216.67	44.006	46.683	145.47	26.416	35.071	443.21	150.61	10.516	0.020261
51.000	0.012978	54.817	0.018243	3.8465	3.8467	12.912	72.449	75.337	1543.5	-0.20568	537.45	0.64169	0.067776	0.0048350	206.83	44.030	46.715	145.16	26.437	35.101	443.85	147.45	10.550	0.020338
52.000	0.013631	54.791	0.018251	3.9218	3.9220	13.144	72.361	75.342	1544.5	-0.20512	528.64	0.64279	0.067607	0.0050633	197.50	44.054	46.746	144.85	26.459	35.132	444.48	144.40	10.583	0.020415
53.000	0.014312	54.765	0.018260	3.9971	3.9974	13.375	72.272	75.348	1545.5	-0.20455	520.07	0.64387	0.067438	0.0053007	188.65	44.078	46.778	144.54	26.481	35.163	445.12	141.45	10.617	0.020492
54.000	0.015022	54.739	0.018269	4.0725	4.0728	13.606	72.183	75.354	1546.4	-0.20399	511.73	0.64493	0.067268	0.0055474	180.26	44.102	46.810	144.24	26.503	35.194	445.75	138.59	10.651	0.020570
55.000	0.015762	54.712	0.018277	4.1478	4.1481	13.836	72.093	75.361	1547.2	-0.20344	503.61	0.64598	0.067098	0.0058037	172.30	44.126	46.841	143.94	26.526	35.227	446.38	135.82	10.684	0.020648
56.000	0.016533	54.685	0.018286	4.2232	4.2235	14.065	72.003	75.367	1548.0	-0.20288	495.69	0.64701	0.066927	0.0060699	164.75	44.149	46.873	143.64	26.548	35.259	447.01	133.14	10.718	0.020726
57.000	0.017336	54.658	0.018296	4.2986	4.2989	14.294	71.913	75.374	1548.8	-0.20232	487.98	0.64802	0.066755	0.0063463	157.57	44.173	46.905	143.34	26.572	35.292	447.64	130.54	10.752	0.020805
58.000	0.018171	54.630	0.018305	4.3739	4.3743	14.522	71.823	75.381	1549.5	-0.20177	480.47	0.64901	0.066584	0.0066332	150.76	44.197	46.936	143.05	26.595	35.326	448.26	128.02	10.786	0.020884
59.000	0.019041	54.602	0.018314	4.4493	4.4497	14.749	71.732	75.389	1550.2	-0.20122	473.15	0.64999	0.066411	0.0069309	144.28	44.220	46.967	142.76	26.619	35.361	448.88	125.58	10.820	0.020963
60.000	0.019946	54.574	0.018324	4.5247	4.5251	14.976	71.641	75.396	1550.8	-0.20066	466.02	0.65096	0.066238	0.0072397	138.13	44.244	46.999	142.47	26.644	35.396	449.50	123.21	10.854	0.021043
61.000	0.020888	54.545	0.018333	4.6001	4.6005	15.202	71.549	75.404	1551.4	-0.20011	459.06	0.65191	0.066065	0.0075600	132.28	44.267	47.030	142.18	26.668	35.431	450.12	120.91	10.887	0.021123
62.000	0.021867	54.516	0.018343	4.6755	4.6759	15.427	71.457	75.412	1551.9	-0.19956	452.27	0.65284	0.065891	0.0078920	126.71	44.291	47.061	141.89	26.693	35.467	450.73	118.68	10.921	0.021204
63.000	0.022885	54.487	0.018353	4.7509	4.7514	15.652	71.365	75.421	1552.4	-0.19901	445.65	0.65375	0.065716	0.0082362	121.42	44.314	47.093	141.61	26.719	35.504	451.35	116.52	10.956	0.021284
64.000	0.023943	54.457	0.018363	4.8264	4.8268	15.876	71.273	75.430	1552.9	-0.19846	439.19	0.65465	0.065541	0.0085929	116.38	44.338	47.124	141.33	26.745	35.542	451.96	114.42	10.990	0.021366
65.000	0.025042	54.427	0.018373	4.9018	4.9022	16.099	71.180	75.439	1553.3	-0.19791	432.88	0.65554	0.065366	0.0089623	111.58	44.361	47.155	141.05	26.771	35.580	452.57	112.39	11.024	0.021447
66.000	0.026183	54.397	0.018383	4.9772	4.9777	16.322	71.087	75.448	1553.6	-0.19736	426.73	0.65640	0.065190	0.0093449	107.01	44.384	47.186	140.78	26.798	35.619	453.17	110.41	11.058	0.021529
67.000	0.027368	54.366	0.018394	5.0527	5.0532	16.544	70.994	75.458	1553.9	-0.19682	420.72	0.65726	0.065013	0.0097411	102.66	44.408	47.217	140.50	26.825	35.659	453.77	108.48	11.092	0.021611
68.000	0.028599	54.335	0.018404	5.1281	5.1287	16.766	70.901	75.467	1554.2	-0.19627	414.86	0.65809	0.064836	0.010151	98.511	44.431	47.248	140.23	26.853	35.699	454.37	106.62	11.126	0.021694
69.000	0.029876	54.304	0.018415	5.2036	5.2041	16.987	70.808	75.478	1554.4	-0.19572	409.13	0.65891	0.064659	0.010576	94.558	44.454	47.279	139.96	26.881	35.740	454.97	104.80	11.160	0.021777
70.000	0.031201	54.273	0.018426	5.2791	5.2796	17.207	70.714	75.488	1554.6	-0.19517	403.53	0.65972	0.064481	0.011015	90.789	44.477	47.310	139.69	26.909	35.782	455.57	103.04	11.195	0.021860
71.000	0.032575	54.241	0.018436	5.3546	5.3552	17.427	70.621	75.499	1554.8	-0.19462	398.06	0.66051	0.064302	0.011469	87.194	44.500	47.341	139.42	26.938	35.825	456.16	101.32	11.229	0.021944
72.000	0.034000	54.209	0.018447	5.4301	5.4307	17.646	70.527	75.510	1554.9	-0.19407	392.72	0.66129	0.064123	0.011938	83.764	44.523	47.371	139.16	26.968	35.868	456.75	99.654	11.263	0.022028
73.000	0.035478	54.176	0.018458	5.5056	5.5062	17.864	70.433	75.521	1554.9	-0.19352	387.50	0.66205	0.063944	0.012424	80.492	44.546	47.402	138.90	26.998	35.913	457.34	98.032	11.298	0.022113
74.000	0.037009	54.143	0.018469	5.5811	5.5818	18.082	70.339	75.532	1555.0	-0.19297	382.39	0.66280	0.063764	0.012925	77.367	44.569	47.433	138.64	27.028	35.958	457.93	96.452	11.332	0.022198
75.000	0.038595	54.110	0.018481	5.6566	5.6573	18.299	70.244	75.544	1554.9	-0.19242	377.40	0.66353	0.063583	0.013444	74.384	44.592	47.463	138.38	27.059	36.004	458.51	94.915	11.367	0.022283
76.000	0.040239	54.077	0.018492	5.7322	5.7329	18.516	70.150	75.556	1554.9	-0.19187	372.52	0.66424	0.063402	0.013979	71.535	44.615	47.494	138.12	27.091	36.050	459.09	93.419	11.401	0.022369
77.000	0.041941	54.044	0.018504	5.8077	5.8085	18.732	70.056	75.569	1554.8	-0.19132	367.74	0.66495	0.063220	0.014532	68.812	44.638	47.524	137.87	27.123	36.098	459.67	91.962	11.435	0.022455
78.000	0.043703	54.010	0.018515	5.8833	5.8841	18.948	69.961	75.581	1554.7	-0.19076	363.07	0.66563	0.063038	0.015103	66.210	44.661	47.554	137.62	27.155	36.147	460.25	90.542	11.470	0.022542
79.000	0.045527	53.976	0.018527	5.9589	5.9597	19.162	69.867	75.594	1554.5	-0.19021	358.51	0.66631	0.062856	0.015693	63.723	44.683	47.584	137.36	27.188	36.196	460.82	89.160	11.504	0.022629
80.000	0.047414	53.941	0.018539	6.0345	6.0353	19.377	69.772	75.608	1554.3	-0.18965	354.04	0.66697	0.062673	0.016301	61.345	44.706	47.615	137.12	27.222	36.246	461.39	87.812	11.539	0.022717
81.000	0.049367	53.907	0.018551	6.1101	6.1110	19.591	69.677	75.621	1554.1	-0.18910	349.66	0.66761	0.062489	0.016929	59.070	44.729	47.645	136.87	27.256	36.298	461.96	86.499	11.573	0.022805
82.000	0.051387	53.872	0.018563	6.1857	6.1866	19.804	69.583	75.635	1553.8	-0.18854	345.38	0.66824	0.062305	0.017577	56.894	44.751	47.675	136.62	27.291	36.350	462.52	85.219	11.608	0.022893
83.000	0.053476	53.836	0.018575	6.2613	6.2623	20.017	69.488	75.650	1553.5	-0.18798	341.19	0.66885	0.062121	0.018245	54.811	44.774	47.705	136.38	27.327	36.403	463.08	83.970	11.643	0.022982
84.000	0.055635	53.801	0.018587	6.3370	6.3380	20.229	69.393	75.664	1553.2	-0.18742	337.08	0.66946	0.061936	0.018933	52.817	44.796	47.735	136.14	27.363	36.457	463.64	82.752	11.677	0.023072
85.000	0.057867	53.765	0.018599	6.4126	6.4137	20.440	69.299	75.679	1552.8	-0.18686	333.06	0.67004	0.061750	0.019643	50.908	44.818	47.764	135.90	27.399	36.512	464.20	81.564	11.712	0.023162
86.000	0.060173	53.729	0.018612	6.4883	6.4894	20.651	69.204	75.695	1552.4	-0.18629	329.13	0.67062	0.061565	0.020375	49.080	44.841	47.794	135.66	27.437	36.569	464.75	80.404	11.746	0.023252
87.000	0.062556	53.693	0.018625	6.5640	6.5652	20.862	69.109	75.710	1551.9	-0.18573	325.27	0.67118	0.061378	0.021129	47.328	44.863	47.824	135.42	27.474	36.626	465.30	79.272	11.781	0.023343
88.000	0.065017	53.656	0.018637	6.6397	6.6409	21.072	69.015	75.726	1551.4	-0.18516	321.49	0.67172	0.061191	0.021906	45.650	44.885	47.853	135.19	27.513	36.684	465.85	78.167	11.816	0.023434
89.000	0.067558	53.619	0.018650	6.7154	6.7167	21.281	68.920	75.742	1550.9	-0.18459	317.79	0.67225	0.061004	0.022706	44.041	44.907	47.883	134.95	27.552	36.743	466.40	77.088	11.850	0.023526
90.000	0.070182	53.582	0.018663	6.7912	6.7925	21.490	68.826	75.759	1550.4	-0.18402	314.17	0.67277	0.060816	0.023530	42.499	44.929	47.912	134.72	27.592	36.804	466.94	76.034	11.885	0.023618
91.000	0.072890	53.545	0.018676	6.8669	6.8683	21.698	68.731	75.776	1549.8	-0.18345	310.61	0.67328	0.060628	0.024378	41.020	44.952	47.941	134.49	27.632	36.865	467.48	75.004	11.920	0.023711
92.000	0.075684	53.507	0.018689	6.9427	6.9441	21.906	68.637	75.794	1549.2	-0.18287	307.13	0.67377	0.060439	0.025252	39.601	44.973	47.971	134.26	27.674	36.928	468.01	73.998	11.954	0.023804
93.000	0.078568	53.469	0.018702	7.0185	7.0199	22.113	68.542	75.811	1548.6	-0.18230	303.71	0.67424	0.060250	0.026150	38.240	44.995	48.000	134.03	27.716	36.992	468.55	73.015	11.989	0.023898
94.000	0.081541	53.431	0.018716	7.0943	7.0958	22.320	68.448	75.830	1547.9	-0.18172	300.36	0.67471	0.060060	0.027075	36.934	45.017	48.029	133.81	27.758	37.057	469.08	72.053	12.024	0.023993
95.000	0.084608	53.392	0.018729	7.1701	7.1717	22.526	68.354	75.848	1547.2	-0.18114	297.08	0.67516	0.059870	0.028027	35.680	45.039	48.058	133.58	27.801	37.123	469.61	71.113	12.059	0.024088
96.000	0.087771	53.354	0.018743	7.2459	7.2476	22.732	68.260	75.867	1546.4	-0.18055	293.86	0.67559	0.059679	0.029005	34.476	45.061	48.087	133.36	27.845	37.191	470.13	70.193	12.093	0.024183
97.000	0.091030	53.315	0.018756	7.3218	7.3235	22.937	68.166	75.886	1545.7	-0.17997	290.70	0.67602	0.059488	0.030012	33.320	45.082	48.115	133.14	27.890	37.259	470.65	69.293	12.128	0.024279
98.000	0.094390	53.276	0.018770	7.3977	7.3994	23.142	68.072	75.906	1544.9	-0.17938	287.60	0.67643	0.059296	0.031046	32.210	45.104	48.144	132.92	27.936	37.329	471.17	68.413	12.163	0.024375
99.000	0.097852	53.236	0.018784	7.4736	7.4754	23.346	67.978	75.926	1544.0	-0.17879	284.56	0.67683	0.059104	0.032110	31.143	45.125	48.173	132.70	27.982	37.400	471.68	67.551	12.197	0.024473
100.00	0.10142	53.196	0.018798	7.5495	7.5514	23.550	67.884	75.946	1543.2	-0.17819	281.58	0.67721	0.058912	0.033203	30.117	45.147	48.201	132.49	28.029	37.473	472.20	66.707	12.232	0.024570
101.00	0.10509	53.157	0.018812	7.6254	7.6274	23.753	67.791	75.967	1542.3	-0.17759	278.66	0.67758	0.058719	0.034327	29.132	45.168	48.229	132.27	28.076	37.546	472.70	65.881	12.267	0.024668
102.00	0.10887	53.116	0.018827	7.7014	7.7034	23.956	67.698	75.989	1541.3	-0.17699	275.78	0.67794	0.058525	0.035481	28.184	45.189	48.258	132.06	28.125	37.621	473.21	65.072	12.302	0.024767
103.00	0.11277	53.076	0.018841	7.7774	7.7795	24.158	67.604	76.010	1540.4	-0.17639	272.96	0.67829	0.058332	0.036667	27.273	45.210	48.286	131.84	28.174	37.698	473.71	64.280	12.336	0.024867
104.00	0.11678	53.035	0.018855	7.8534	7.8556	24.360	67.511	76.033	1539.4	-0.17578	270.20	0.67862	0.058137	0.037885	26.396	45.232	48.314	131.63	28.224	37.775	474.21	63.503	12.371	0.024967
105.00	0.12090	52.994	0.018870	7.9294	7.9317	24.561	67.418	76.055	1538.4	-0.17517	267.48	0.67894	0.057943	0.039135	25.552	45.253	48.342	131.42	28.275	37.854	474.71	62.742	12.406	0.025067
106.00	0.12515	52.953	0.018885	8.0054	8.0078	24.762	67.326	76.078	1537.4	-0.17456	264.81	0.67924	0.057747	0.040419	24.741	45.274	48.370	131.22	28.327	37.935	475.20	61.996	12.441	0.025168
107.00	0.12952	52.912	0.018899	8.0815	8.0839	24.962	67.233	76.102	1536.3	-0.17395	262.19	0.67954	0.057552	0.041737	23.960	45.294	48.398	131.01	28.380	38.017	475.69	61.264	12.475	0.025270
108.00	0.13401	52.870	0.018914	8.1576	8.1601	25.162	67.141	76.125	1535.2	-0.17333	259.62	0.67982	0.057356	0.043090	23.207	45.315	48.425	130.80	28.433	38.100	476.17	60.547	12.510	0.025373
109.00	0.13863	52.828	0.018929	8.2337	8.2363	25.362	67.048	76.150	1534.1	-0.17270	257.09	0.68009	0.057159	0.044478	22.483	45.336	48.453	130.60	28.487	38.185	476.66	59.843	12.545	0.025476
110.00	0.14338	52.786	0.018945	8.3098	8.3125	25.561	66.956	76.174	1532.9	-0.17208	254.61	0.68035	0.056962	0.045902	21.786	45.357	48.480	130.40	28.542	38.271	477.13	59.153	12.580	0.025579
111.00	0.14826	52.743	0.018960	8.3860	8.3888	25.759	66.865	76.200	1531.7	-0.17145	252.17	0.68059	0.056765	0.047362	21.114	45.377	48.508	130.19	28.598	38.359	477.61	58.475	12.614	0.025683
112.00	0.15328	52.701	0.018975	8.4621	8.4650	25.957	66.773	76.225	1530.5	-0.17082	249.78	0.68082	0.056567	0.048861	20.466	45.398	48.535	129.99	28.655	38.448	478.08	57.810	12.649	0.025788
113.00	0.15844	52.658	0.018991	8.5383	8.5414	26.155	66.682	76.252	1529.3	-0.17018	247.42	0.68104	0.056368	0.050397	19.842	45.418	48.562	129.79	28.713	38.539	478.55	57.157	12.684	0.025894
114.00	0.16374	52.614	0.019006	8.6146	8.6177	26.352	66.590	76.278	1528.0	-0.16954	245.11	0.68125	0.056170	0.051973	19.241	45.438	48.589	129.60	28.772	38.631	479.02	56.515	12.718	0.026000
115.00	0.16918	52.571	0.019022	8.6908	8.6940	26.549	66.499	76.305	1526.7	-0.16889	242.84	0.68145	0.055970	0.053588	18.661	45.458	48.616	129.40	28.831	38.725	479.48	55.886	12.753	0.026107
116.00	0.17477	52.527	0.019038	8.7671	8.7704	26.745	66.409	76.333	1525.4	-0.16824	240.60	0.68163	0.055771	0.055243	18.102	45.479	48.642	129.20	28.892	38.820	479.94	55.267	12.788	0.026215
117.00	0.18052	52.484	0.019054	8.8434	8.8469	26.941	66.318	76.361	1524.1	-0.16759	238.40	0.68180	0.055571	0.056940	17.562	45.499	48.669	129.01	28.953	38.917	480.39	54.659	12.822	0.026323
118.00	0.18641	52.439	0.019070	8.9198	8.9233	27.136	66.228	76.389	1522.7	-0.16693	236.25	0.68196	0.055370	0.058678	17.042	45.519	48.695	128.82	29.015	39.016	480.84	54.061	12.857	0.026432
119.00	0.19246	52.395	0.019086	8.9961	8.9998	27.331	66.137	76.418	1521.3	-0.16627	234.12	0.68211	0.055169	0.060460	16.540	45.538	48.722	128.62	29.079	39.117	481.29	53.473	12.892	0.026541
120.00	0.19867	52.350	0.019102	9.0725	9.0763	27.526	66.048	76.448	1519.9	-0.16561	232.03	0.68224	0.054968	0.062284	16.055	45.558	48.748	128.43	29.143	39.219	481.73	52.896	12.927	0.026652
121.00	0.20505	52.306	0.019118	9.1489	9.1528	27.720	65.958	76.478	1518.4	-0.16494	229.98	0.68237	0.054766	0.064153	15.588	45.578	48.774	128.24	29.208	39.322	482.17	52.327	12.961	0.026763
122.00	0.21159	52.260	0.019135	9.2254	9.2294	27.914	65.868	76.509	1517.0	-0.16426	227.96	0.68248	0.054564	0.066067	15.136	45.597	48.800	128.05	29.274	39.428	482.61	51.768	12.996	0.026874
123.00	0.21830	52.215	0.019152	9.3018	9.3060	28.107	65.779	76.540	1515.5	-0.16358	225.98	0.68258	0.054362	0.068027	14.700	45.617	48.826	127.87	29.341	39.535	483.04	51.219	13.030	0.026987
124.00	0.22518	52.170	0.019168	9.3784	9.3827	28.300	65.690	76.571	1513.9	-0.16290	224.02	0.68266	0.054159	0.070033	14.279	45.636	48.852	127.68	29.409	39.644	483.47	50.677	13.065	0.027100
125.00	0.23224	52.124	0.019185	9.4549	9.4593	28.492	65.602	76.603	1512.4	-0.16221	222.10	0.68274	0.053955	0.072086	13.872	45.656	48.877	127.49	29.478	39.754	483.90	50.145	13.100	0.027214
126.00	0.23947	52.078	0.019202	9.5315	9.5361	28.684	65.513	76.636	1510.8	-0.16152	220.21	0.68281	0.053751	0.074188	13.479	45.675	48.903	127.31	29.548	39.866	484.32	49.620	13.134	0.027329
127.00	0.24689	52.031	0.019219	9.6081	9.6128	28.876	65.425	76.669	1509.2	-0.16082	218.35	0.68286	0.053547	0.076340	13.099	45.694	48.928	127.13	29.619	39.981	484.74	49.104	13.169	0.027444
128.00	0.25450	51.985	0.019236	9.6847	9.6896	29.067	65.337	76.703	1507.6	-0.16012	216.52	0.68290	0.053343	0.078541	12.732	45.713	48.953	126.94	29.690	40.096	485.15	48.596	13.204	0.027560
129.00	0.26229	51.938	0.019254	9.7613	9.7664	29.258	65.249	76.737	1506.0	-0.15941	214.71	0.68293	0.053138	0.080792	12.377	45.732	48.978	126.76	29.763	40.214	485.56	48.095	13.238	0.027677
130.00	0.27028	51.891	0.019271	9.8380	9.8432	29.449	65.162	76.772	1504.3	-0.15869	212.94	0.68295	0.052932	0.083096	12.034	45.750	49.003	126.58	29.837	40.334	485.97	47.601	13.273	0.027795
131.00	0.27846	51.844	0.019289	9.9148	9.9201	29.639	65.075	76.807	1502.6	-0.15798	211.20	0.68296	0.052726	0.085452	11.702	45.769	49.028	126.40	29.912	40.455	486.37	47.115	13.307	0.027913
132.00	0.28685	51.797	0.019306	9.9915	9.9971	29.828	64.988	76.843	1500.9	-0.15725	209.48	0.68295	0.052520	0.087862	11.382	45.788	49.052	126.23	29.988	40.578	486.77	46.636	13.342	0.028032
133.00	0.29543	51.749	0.019324	10.068	10.074	30.018	64.901	76.880	1499.1	-0.15652	207.78	0.68294	0.052313	0.090325	11.071	45.806	49.077	126.05	30.065	40.703	487.16	46.163	13.376	0.028153
134.00	0.30423	51.701	0.019342	10.145	10.151	30.207	64.815	76.917	1497.3	-0.15579	206.12	0.68291	0.052106	0.092845	10.771	45.824	49.101	125.87	30.142	40.830	487.55	45.698	13.411	0.028273
135.00	0.31323	51.653	0.019360	10.222	10.228	30.395	64.729	76.955	1495.5	-0.15505	204.48	0.68288	0.051899	0.095420	10.480	45.843	49.125	125.70	30.221	40.959	487.94	45.238	13.445	0.028395
136.00	0.32245	51.604	0.019378	10.299	10.305	30.583	64.643	76.993	1493.7	-0.15430	202.86	0.68283	0.051691	0.098052	10.199	45.861	49.149	125.52	30.301	41.090	488.32	44.785	13.480	0.028517
137.00	0.33188	51.556	0.019397	10.376	10.382	30.771	64.558	77.032	1491.9	-0.15355	201.27	0.68277	0.051483	0.10074	9.9263	45.879	49.173	125.35	30.382	41.223	488.70	44.338	13.514	0.028641
138.00	0.34154	51.507	0.019415	10.453	10.459	30.959	64.472	77.071	1490.0	-0.15279	199.71	0.68270	0.051274	0.10349	9.6626	45.897	49.197	125.18	30.463	41.357	489.08	43.898	13.549	0.028765
139.00	0.35143	51.458	0.019433	10.530	10.537	31.146	64.387	77.111	1488.1	-0.15203	198.16	0.68262	0.051065	0.10630	9.4073	45.914	49.220	125.00	30.546	41.494	489.45	43.463	13.583	0.028890
140.00	0.36154	51.408	0.019452	10.607	10.614	31.333	64.303	77.152	1486.2	-0.15126	196.64	0.68253	0.050856	0.10917	9.1599	45.932	49.244	124.83	30.630	41.632	489.82	43.033	13.618	0.029016
141.00	0.37189	51.359	0.019471	10.684	10.691	31.519	64.218	77.193	1484.3	-0.15048	195.15	0.68242	0.050646	0.11210	8.9204	45.950	49.267	124.66	30.715	41.773	490.18	42.610	13.652	0.029142
142.00	0.38247	51.309	0.019490	10.761	10.769	31.705	64.134	77.235	1482.3	-0.14970	193.67	0.68231	0.050436	0.11510	8.6883	45.967	49.290	124.49	30.800	41.915	490.54	42.192	13.686	0.029270
143.00	0.39329	51.259	0.019509	10.838	10.846	31.891	64.051	77.278	1480.3	-0.14891	192.22	0.68218	0.050225	0.11816	8.4634	45.984	49.313	124.33	30.887	42.059	490.89	41.779	13.721	0.029398
144.00	0.40437	51.209	0.019528	10.915	10.923	32.076	63.967	77.321	1478.3	-0.14811	190.78	0.68205	0.050015	0.12128	8.2454	46.001	49.336	124.16	30.975	42.206	491.25	41.371	13.755	0.029527
145.00	0.41568	51.158	0.019547	10.993	11.001	32.261	63.884	77.364	1476.3	-0.14731	189.37	0.68190	0.049803	0.12447	8.0341	46.019	49.358	123.99	31.064	42.354	491.59	40.969	13.790	0.029657
146.00	0.42726	51.107	0.019567	11.070	11.078	32.445	63.801	77.409	1474.3	-0.14650	187.98	0.68175	0.049592	0.12773	7.8293	46.036	49.381	123.83	31.153	42.505	491.93	40.571	13.824	0.029788
147.00	0.43909	51.056	0.019586	11.147	11.156	32.630	63.718	77.454	1472.2	-0.14569	186.61	0.68158	0.049380	0.13105	7.6307	46.052	49.403	123.66	31.244	42.657	492.27	40.178	13.858	0.029920
148.00	0.45118	51.005	0.019606	11.225	11.234	32.814	63.636	77.500	1470.1	-0.14487	185.26	0.68140	0.049167	0.13444	7.4381	46.069	49.425	123.50	31.335	42.812	492.61	39.790	13.893	0.030053
149.00	0.46354	50.953	0.019626	11.302	11.311	32.997	63.554	77.546	1468.0	-0.14404	183.92	0.68121	0.048954	0.13791	7.2513	46.086	49.447	123.33	31.428	42.968	492.94	39.407	13.927	0.030187
150.00	0.47616	50.902	0.019646	11.380	11.389	33.181	63.472	77.593	1465.8	-0.14320	182.61	0.68102	0.048741	0.14144	7.0701	46.102	49.469	123.17	31.521	43.127	493.26	39.028	13.961	0.030321
151.00	0.48907	50.850	0.019666	11.457	11.467	33.364	63.391	77.641	1463.7	-0.14236	181.32	0.68081	0.048528	0.14505	6.8943	46.118	49.490	123.01	31.616	43.287	493.59	38.654	13.996	0.030457
152.00	0.50225	50.798	0.019686	11.535	11.544	33.546	63.309	77.689	1461.5	-0.14151	180.04	0.68059	0.048314	0.14873	6.7238	46.135	49.512	122.85	31.711	43.450	493.90	38.284	14.030	0.030594
153.00	0.51571	50.745	0.019706	11.612	11.622	33.728	63.229	77.739	1459.3	-0.14065	178.78	0.68036	0.048100	0.15248	6.5582	46.151	49.533	122.69	31.808	43.615	494.22	37.919	14.064	0.030731
154.00	0.52946	50.692	0.019727	11.690	11.700	33.910	63.148	77.788	1457.1	-0.13978	177.54	0.68012	0.047885	0.15631	6.3976	46.167	49.554	122.53	31.905	43.782	494.53	37.557	14.098	0.030869
155.00	0.54350	50.639	0.019747	11.767	11.778	34.092	63.068	77.839	1454.8	-0.13891	176.31	0.67987	0.047670	0.16022	6.2416	46.182	49.575	122.37	32.003	43.950	494.83	37.200	14.133	0.031009
156.00	0.55784	50.586	0.019768	11.845	11.856	34.273	62.988	77.890	1452.5	-0.13803	175.10	0.67961	0.047455	0.16420	6.0901	46.198	49.595	122.21	32.102	44.122	495.13	36.847	14.167	0.031149
157.00	0.57247	50.533	0.019789	11.923	11.934	34.454	62.908	77.942	1450.3	-0.13714	173.91	0.67934	0.047240	0.16826	5.9431	46.213	49.616	122.06	32.202	44.295	495.43	36.498	14.201	0.031291
158.00	0.58742	50.479	0.019810	12.001	12.012	34.635	62.829	77.995	1447.9	-0.13624	172.73	0.67920	0.047024	0.17241	5.8002	46.229	49.636	121.90	32.303	44.470	495.72	36.153	14.235	0.031433
159.00	0.60267	50.425	0.019831	12.079	12.091	34.816	62.750	78.048	1445.6	-0.13534	171.57	0.67898	0.046807	0.17663	5.6615	46.244	49.656	121.74	32.405	44.647	496.01	35.811	14.269	0.031576
160.00	0.61823	50.371	0.019853	12.157	12.169	34.996	62.671	78.103	1443.2	-0.13443	170.43	0.67873	0.046591	0.18094	5.5268	46.259	49.676	121.59	32.508	44.827	496.29	35.474	14.304	0.031721
161.00	0.63412	50.317	0.019874	12.235	12.247	35.176	62.593	78.158	1440.9	-0.13350	169.30	0.67846	0.046374	0.18533	5.3958	46.274	49.696	121.43	32.611	45.008	496.57	35.140	14.338	0.031866
162.00	0.65033	50.262	0.019896	12.313	12.325	35.355	62.514	78.213	1438.5	-0.13257	168.19	0.67818	0.046156	0.18980	5.2686	46.289	49.715	121.28	32.716	45.192	496.85	34.810	14.372	0.032012
163.00	0.66686	50.207	0.019917	12.391	12.404	35.534	62.437	78.270	1436.0	-0.13164	167.09	0.67789	0.045939	0.19437	5.1449	46.304	49.735	121.13	32.821	45.378	497.12	34.483	14.406	0.032160
164.00	0.68373	50.152	0.019939	12.469	12.482	35.713	62.359	78.327	1433.6	-0.13069	166.00	0.67758	0.045721	0.19901	5.0247	46.318	49.754	120.97	32.927	45.566	497.39	34.160	14.440	0.032308
165.00	0.70093	50.097	0.019961	12.547	12.561	35.892	62.282	78.385	1431.1	-0.12973	164.93	0.67726	0.045503	0.20375	4.9079	46.333	49.773	120.82	33.034	45.756	497.65	33.841	14.474	0.032458
166.00	0.71848	50.041	0.019984	12.625	12.639	36.070	62.205	78.444	1428.7	-0.12877	163.87	0.67694	0.045284	0.20858	4.7943	46.347	49.791	120.67	33.142	45.948	497.91	33.525	14.508	0.032608
167.00	0.73638	49.985	0.020006	12.703	12.718	36.248	62.128	78.504	1426.2	-0.12779	162.83	0.67660	0.045065	0.21350	4.6839	46.361	49.810	120.52	33.250	46.143	498.16	33.213	14.542	0.032760
168.00	0.75462	49.929	0.020028	12.782	12.797	36.426	62.052	78.564	1423.6	-0.12681	161.80	0.67625	0.044846	0.21851	4.5764	46.375	49.828	120.37	33.360	46.340	498.41	32.903	14.577	0.032912
169.00	0.77322	49.873	0.020051	12.860	12.876	36.604	61.976	78.625	1421.1	-0.12581	160.78	0.67589	0.044626	0.22362	4.4719	46.389	49.847	120.22	33.470	46.538	498.65	32.598	14.611	0.033066
170.00	0.79219	49.816	0.020074	12.939	12.954	36.781	61.900	78.687	1418.5	-0.12481	159.77	0.67552	0.044406	0.22882	4.3703	46.402	49.864	120.07	33.581	46.740	498.89	32.295	14.645	0.033221
171.00	0.81152	49.759	0.020097	13.017	13.033	36.958	61.825	78.750	1415.9	-0.12380	158.78	0.67514	0.044186	0.23411	4.2714	46.416	49.882	119.92	33.693	46.943	499.13	31.996	14.679	0.033377
172.00	0.83122	49.702	0.020120	13.096	13.112	37.135	61.750	78.814	1413.3	-0.12277	157.80	0.67475	0.043965	0.23951	4.1752	46.429	49.900	119.78	33.805	47.148	499.36	31.699	14.713	0.033534
173.00	0.85130	49.645	0.020143	13.174	13.191	37.311	61.675	78.879	1410.7	-0.12174	156.83	0.67435	0.043745	0.24500	4.0816	46.442	49.917	119.63	33.919	47.356	499.58	31.406	14.747	0.033692
174.00	0.87176	49.587	0.020167	13.253	13.271	37.487	61.601	78.944	1408.0	-0.12070	155.88	0.67394	0.043523	0.25060	3.9905	46.455	49.934	119.48	34.033	47.566	499.81	31.117	14.781	0.033852
175.00	0.89260	49.529	0.020190	13.332	13.350	37.663	61.527	79.011	1405.4	-0.11965	154.93	0.67352	0.043302	0.25629	3.9018	46.468	49.951	119.34	34.148	47.778	500.02	30.830	14.815	0.034012
176.00	0.91384	49.471	0.020214	13.410	13.429	37.839	61.453	79.078	1402.7	-0.11858	154.00	0.67309	0.043080	0.26209	3.8154	46.481	49.968	119.19	34.263	47.993	500.24	30.546	14.849	0.034174
177.00	0.93547	49.413	0.020238	13.489	13.508	38.014	61.379	79.146	1400.0	-0.11751	153.08	0.67265	0.042858	0.26800	3.7314	46.494	49.984	119.05	34.379	48.210	500.44	30.265	14.883	0.034336
178.00	0.95751	49.354	0.020262	13.568	13.588	38.190	61.306	79.216	1397.2	-0.11642	152.17	0.67220	0.042636	0.27401	3.6495	46.506	50.000	118.90	34.496	48.429	500.65	29.987	14.917	0.034500
179.00	0.97995	49.295	0.020286	13.647	13.667	38.364	61.233	79.286	1394.5	-0.11532	151.27	0.67174	0.042413	0.28013	3.5698	46.518	50.016	118.76	34.614	48.650	500.85	29.712	14.951	0.034666
180.00	1.0028	49.236	0.020310	13.726	13.747	38.539	61.160	79.357	1391.7	-0.11422	150.38	0.67128	0.042190	0.28636	3.4921	46.530	50.032	118.61	34.732	48.874	501.04	29.440	14.985	0.034832
181.00	1.0261	49.177	0.020335	13.805	13.826	38.714	61.088	79.429	1388.9	-0.11310	149.50	0.67080	0.041967	0.29270	3.4165	46.542	50.048	118.47	34.851	49.100	501.23	29.171	15.019	0.034999
182.00	1.0498	49.117	0.020360	13.885	13.906	38.888	61.016	79.502	1386.1	-0.11197	148.64	0.67031	0.041743	0.29915	3.3428	46.554	50.063	118.33	34.971	49.328	501.41	28.905	15.053	0.035168
183.00	1.0739	49.057	0.020385	13.964	13.986	39.062	60.945	79.575	1383.3	-0.11082	147.78	0.66982	0.041520	0.30572	3.2710	46.566	50.078	118.19	35.091	49.558	501.59	28.642	15.087	0.035338
184.00	1.0985	48.997	0.020410	14.043	14.065	39.235	60.873	79.650	1380.4	-0.10967	146.93	0.66931	0.041296	0.31240	3.2010	46.577	50.093	118.04	35.212	49.791	501.77	28.381	15.121	0.035509
185.00	1.1235	48.936	0.020435	14.122	14.145	39.409	60.802	79.726	1377.5	-0.10850	146.09	0.66880	0.041071	0.31920	3.1329	46.588	50.108	117.90	35.334	50.027	501.94	28.123	15.155	0.035682
186.00	1.1489	48.875	0.020460	14.202	14.225	39.582	60.731	79.803	1374.6	-0.10733	145.26	0.66828	0.040847	0.32611	3.0664	46.599	50.122	117.76	35.456	50.265	502.11	27.868	15.189	0.035856
187.00	1.1748	48.814	0.020486	14.281	14.305	39.755	60.661	79.881	1371.7	-0.10613	144.44	0.66775	0.040622	0.33315	3.0016	46.610	50.136	117.62	35.579	50.505	502.27	27.615	15.223	0.036031
188.00	1.2011	48.753	0.020512	14.361	14.386	39.928	60.591	79.960	1368.8	-0.10493	143.63	0.66720	0.040397	0.34031	2.9385	46.621	50.150	117.48	35.703	50.747	502.43	27.365	15.257	0.036207
189.00	1.2280	48.691	0.020537	14.441	14.466	40.101	60.521	80.040	1365.8	-0.10371	142.83	0.66665	0.040171	0.34759	2.8769	46.631	50.164	117.34	35.827	50.993	502.58	27.118	15.291	0.036384
190.00	1.2552	48.630	0.020564	14.520	14.546	40.273	60.451	80.121	1362.9	-0.10248	142.04	0.66609	0.039945	0.35500	2.8169	46.642	50.178	117.21	35.951	51.240	502.72	26.873	15.325	0.036563
191.00	1.2830	48.568	0.020590	14.600	14.626	40.445	60.382	80.203	1359.9	-0.10124	141.26	0.66553	0.039719	0.36253	2.7584	46.652	50.191	117.07	36.077	51.490	502.87	26.631	15.359	0.036743
192.00	1.3112	48.505	0.020616	14.680	14.707	40.617	60.313	80.286	1356.9	-0.099985	140.49	0.66495	0.039493	0.37020	2.7013	46.662	50.204	116.93	36.203	51.743	503.00	26.392	15.393	0.036925
193.00	1.3399	48.442	0.020643	14.760	14.788	40.789	60.245	80.371	1353.8	-0.098715	139.72	0.66436	0.039267	0.37799	2.6456	46.672	50.217	116.79	36.329	51.998	503.14	26.154	15.428	0.037108
194.00	1.3691	48.379	0.020670	14.840	14.868	40.960	60.177	80.456	1350.8	-0.097431	138.96	0.66377	0.039040	0.38592	2.5912	46.681	50.229	116.66	36.456	52.256	503.26	25.920	15.462	0.037292
195.00	1.3988	48.316	0.020697	14.920	14.949	41.132	60.109	80.543	1347.7	-0.096133	138.21	0.66317	0.038813	0.39398	2.5382	46.691	50.241	116.52	36.584	52.516	503.39	25.688	15.496	0.037478
196.00	1.4290	48.253	0.020724	15.000	15.030	41.303	60.041	80.631	1344.6	-0.094820	137.47	0.66255	0.038586	0.40217	2.4865	46.700	50.253	116.38	36.712	52.779	503.50	25.458	15.530	0.037664
197.00	1.4597	48.189	0.020752	15.080	15.111	41.474	59.974	80.720	1341.5	-0.093493	136.74	0.66193	0.038358	0.41051	2.4360	46.709	50.265	116.25	36.841	53.045	503.62	25.231	15.564	0.037853
198.00	1.4909	48.125	0.020779	15.161	15.192	41.644	59.907	80.810	1338.4	-0.092151	136.01	0.66130	0.038131	0.41898	2.3867	46.718	50.277	116.11	36.970	53.313	503.72	25.006	15.598	0.038043
199.00	1.5227	48.061	0.020807	15.241	15.273	41.815	59.840	80.901	1335.2	-0.090793	135.29	0.66066	0.037903	0.42759	2.3387	46.727	50.288	115.98	37.100	53.584	503.83	24.784	15.632	0.038234
200.00	1.5549	47.996	0.020835	15.321	15.354	41.985	59.773	80.994	1332.1	-0.089421	134.58	0.66001	0.037675	0.43635	2.2917	46.735	50.299	115.84	37.230	53.857	503.92	24.564	15.666	0.038426
201.00	1.5877	47.931	0.020863	15.402	15.435	42.155	59.707	81.088	1328.9	-0.088033	133.88	0.65936	0.037446	0.44525	2.2459	46.744	50.309	115.71	37.361	54.134	504.02	24.346	15.700	0.038620
202.00	1.6210	47.866	0.020892	15.483	15.517	42.325	59.642	81.183	1325.6	-0.086628	133.19	0.65869	0.037217	0.45430	2.2012	46.752	50.320	115.57	37.492	54.413	504.10	24.131	15.735	0.038816
203.00	1.6549	47.800	0.020920	15.563	15.598	42.495	59.576	81.279	1322.4	-0.085208	132.50	0.65802	0.036989	0.46350	2.1575	46.760	50.330	115.44	37.624	54.695	504.19	23.918	15.769	0.039013
204.00	1.6893	47.734	0.020949	15.644	15.680	42.665	59.511	81.377	1319.2	-0.083772	131.82	0.65734	0.036760	0.47285	2.1148	46.767	50.340	115.31	37.756	54.981	504.26	23.707	15.803	0.039212
205.00	1.7243	47.668	0.020978	15.725	15.761	42.834	59.446	81.476	1315.9	-0.082318	131.14	0.65665	0.036530	0.48236	2.0732	46.775	50.350	115.17	37.889	55.268	504.33	23.498	15.837	0.039412
206.00	1.7598	47.602	0.021008	15.806	15.843	43.003	59.382	81.576	1312.6	-0.080848	130.47	0.65595	0.036301	0.49201	2.0325	46.782	50.359	115.04	38.023	55.559	504.40	23.292	15.871	0.039613
207.00	1.7959	47.535	0.021037	15.887	15.925	43.172	59.317	81.678	1309.3	-0.079361	129.81	0.65524	0.036071	0.50183	1.9927	46.789	50.368	114.91	38.157	55.853	504.46	23.087	15.906	0.039816
208.00	1.8326	47.468	0.021067	15.968	16.007	43.341	59.253	81.781	1306.0	-0.077856	129.16	0.65452	0.035841	0.51180	1.9539	46.796	50.377	114.77	38.291	56.150	504.52	22.885	15.940	0.040021
209.00	1.8698	47.401	0.021097	16.049	16.089	43.510	59.190	81.885	1302.6	-0.076333	128.51	0.65380	0.035611	0.52194	1.9159	46.803	50.385	114.64	38.426	56.450	504.57	22.685	15.974	0.040227
210.00	1.9077	47.333	0.021127	16.131	16.171	43.679	59.127	81.991	1299.3	-0.074792	127.87	0.65306	0.035381	0.53224	1.8788	46.809	50.394	114.51	38.562	56.754	504.61	22.487	16.009	0.040435
211.00	1.9461	47.265	0.021157	16.212	16.253	43.847	59.064	82.099	1295.9	-0.073233	127.23	0.65232	0.035150	0.54271	1.8426	46.816	50.402	114.38	38.698	57.060	504.66	22.291	16.043	0.040645
212.00	1.9851	47.197	0.021188	16.294	16.336	44.015	59.001	82.207	1292.5	-0.071655	126.60	0.65157	0.034919	0.55334	1.8072	46.822	50.409	114.25	38.834	57.370	504.69	22.098	16.078	0.040856
213.00	2.0247	47.128	0.021219	16.375	16.418	44.184	58.939	82.318	1289.0	-0.070058	125.98	0.65081	0.034688	0.56415	1.7726	46.828	50.417	114.12	38.971	57.683	504.72	21.906	16.112	0.041069
214.00	2.0650	47.059	0.021250	16.457	16.501	44.352	58.877	82.429	1285.6	-0.068441	125.36	0.65004	0.034457	0.57512	1.7388	46.833	50.424	113.99	39.109	57.999	504.74	21.717	16.147	0.041283
215.00	2.1058	46.990	0.021281	16.539	16.584	44.519	58.815	82.543	1282.1	-0.066805	124.75	0.64927	0.034226	0.58628	1.7057	46.839	50.430	113.86	39.247	58.319	504.76	21.529	16.181	0.041499
216.00	2.1473	46.921	0.021313	16.621	16.666	44.687	58.754	82.658	1278.6	-0.065148	124.14	0.64848	0.033994	0.59761	1.6733	46.844	50.437	113.73	39.385	58.642	504.77	21.343	16.216	0.041717
217.00	2.1894	46.851	0.021344	16.703	16.749	44.855	58.693	82.774	1275.1	-0.063471	123.54	0.64769	0.033763	0.60912	1.6417	46.849	50.443	113.60	39.524	58.969	504.78	21.160	16.250	0.041937
218.00	2.2322	46.781	0.021376	16.785	16.832	45.022	58.632	82.892	1271.6	-0.061774	122.94	0.64689	0.033531	0.62081	1.6108	46.853	50.449	113.47	39.664	59.299	504.78	20.978	16.285	0.042158
219.00	2.2756	46.710	0.021409	16.867	16.916	45.189	58.571	83.012	1268.1	-0.060055	122.35	0.64608	0.033299	0.63269	1.5806	46.858	50.455	113.34	39.804	59.633	504.78	20.798	16.320	0.042381
220.00	2.3196	46.639	0.021441	16.949	16.999	45.357	58.511	83.134	1264.5	-0.058314	121.77	0.64526	0.033067	0.64475	1.5510	46.862	50.460	113.21	39.944	59.970	504.77	20.620	16.354	0.042606
221.00	2.3643	46.568	0.021474	17.031	17.082	45.524	58.452	83.257	1260.9	-0.056552	121.19	0.64444	0.032834	0.65701	1.5220	46.866	50.465	113.08	40.085	60.312	504.75	20.444	16.389	0.042833
222.00	2.4096	46.497	0.021507	17.114	17.166	45.690	58.392	83.382	1257.3	-0.054767	120.61	0.64360	0.032602	0.66946	1.4937	46.870	50.469	112.95	40.227	60.657	504.73	20.270	16.424	0.043061
223.00	2.4556	46.425	0.021540	17.197	17.249	45.857	58.333	83.509	1253.7	-0.052960	120.04	0.64276	0.032369	0.68210	1.4661	46.874	50.474	112.82	40.369	61.006	504.70	20.097	16.459	0.043292
224.00	2.5023	46.353	0.021574	17.279	17.333	46.024	58.274	83.637	1250.0	-0.051129	119.48	0.64191	0.032136	0.69494	1.4390	46.877	50.478	112.69	40.511	61.359	504.67	19.927	16.494	0.043524
225.00	2.5497	46.280	0.021608	17.362	17.417	46.190	58.216	83.767	1246.4	-0.049275	118.92	0.64105	0.031903	0.70798	1.4125	46.880	50.481	112.56	40.654	61.716	504.63	19.758	16.529	0.043759
226.00	2.5978	46.207	0.021642	17.445	17.501	46.357	58.158	83.900	1242.7	-0.047396	118.37	0.64018	0.031670	0.72123	1.3865	46.883	50.485	112.44	40.798	62.078	504.59	19.591	16.564	0.043995
227.00	2.6466	46.134	0.021676	17.528	17.585	46.523	58.100	84.034	1239.0	-0.045494	117.82	0.63931	0.031437	0.73468	1.3611	46.886	50.488	112.31	40.942	62.443	504.54	19.426	16.599	0.044233
228.00	2.6960	46.060	0.021711	17.611	17.670	46.689	58.042	84.170	1235.3	-0.043566	117.27	0.63842	0.031204	0.74834	1.3363	46.888	50.491	112.18	41.086	62.813	504.48	19.262	16.634	0.044473
229.00	2.7462	45.986	0.021746	17.694	17.754	46.855	57.985	84.308	1231.5	-0.041613	116.73	0.63753	0.030970	0.76222	1.3120	46.890	50.493	112.05	41.232	63.188	504.42	19.100	16.669	0.044716
230.00	2.7971	45.912	0.021781	17.778	17.839	47.021	57.928	84.448	1227.8	-0.039634	116.19	0.63663	0.030736	0.77630	1.2882	46.892	50.495	111.93	41.377	63.566	504.35	18.940	16.705	0.044960
231.00	2.8487	45.837	0.021816	17.861	17.923	47.187	57.872	84.590	1224.0	-0.037629	115.66	0.63572	0.030503	0.79061	1.2648	46.893	50.497	111.80	41.524	63.950	504.28	18.781	16.740	0.045206
232.00	2.9010	45.762	0.021852	17.945	18.008	47.353	57.816	84.734	1220.2	-0.035597	115.13	0.63480	0.030269	0.80514	1.2420	46.895	50.498	111.67	41.670	64.338	504.19	18.625	16.776	0.045455
233.00	2.9541	45.687	0.021888	18.028	18.093	47.519	57.760	84.880	1216.4	-0.033537	114.61	0.63388	0.030035	0.81989	1.2197	46.896	50.499	111.54	41.818	64.731	504.11	18.469	16.811	0.045706
234.00	3.0080	45.611	0.021924	18.112	18.178	47.685	57.705	85.029	1212.5	-0.031450	114.09	0.63294	0.029801	0.83487	1.1978	46.897	50.500	111.42	41.966	65.128	504.01	18.316	16.847	0.045959
235.00	3.0625	45.535	0.021961	18.196	18.263	47.850	57.649	85.179	1208.7	-0.029334	113.57	0.63200	0.029566	0.85008	1.1764	46.897	50.500	111.29	42.114	65.531	503.91	18.164	16.882	0.046214
236.00	3.1179	45.459	0.021998	18.280	18.349	48.016	57.595	85.332	1204.8	-0.027189	113.06	0.63105	0.029332	0.86553	1.1554	46.898	50.500	111.16	42.263	65.939	503.81	18.013	16.918	0.046471
237.00	3.1740	45.382	0.022035	18.364	18.434	48.181	57.540	85.487	1200.9	-0.025015	112.56	0.63009	0.029098	0.88121	1.1348	46.898	50.499	111.04	42.413	66.352	503.69	17.864	16.954	0.046731
238.00	3.2308	45.304	0.022073	18.449	18.520	48.346	57.486	85.645	1196.9	-0.022810	112.05	0.62913	0.028863	0.89713	1.1147	46.897	50.499	110.91	42.563	66.770	503.58	17.717	16.990	0.046993
239.00	3.2885	45.227	0.022111	18.533	18.606	48.512	57.433	85.805	1193.0	-0.020575	111.55	0.62815	0.028628	0.91330	1.0949	46.897	50.498	110.78	42.714	67.194	503.45	17.571	17.026	0.047258
240.00	3.3469	45.149	0.022149	18.618	18.692	48.677	57.379	85.967	1189.0	-0.018308	111.06	0.62717	0.028394	0.92971	1.0756	46.896	50.496	110.66	42.866	67.623	503.32	17.426	17.062	0.047525
241.00	3.4062	45.070	0.022188	18.702	18.778	48.842	57.326	86.132	1185.1	-0.016010	110.56	0.62618	0.028159	0.94638	1.0567	46.895	50.494	110.53	43.018	68.058	503.18	17.283	17.098	0.047794
242.00	3.4662	44.991	0.022226	18.787	18.864	49.007	57.273	86.299	1181.0	-0.013678	110.07	0.62518	0.027924	0.96330	1.0381	46.894	50.492	110.40	43.171	68.499	503.03	17.141	17.135	0.048066
243.00	3.5270	44.912	0.022266	18.872	18.951	49.172	57.221	86.469	1177.0	-0.011314	109.59	0.62417	0.027689	0.98048	1.0199	46.892	50.489	110.28	43.324	68.945	502.88	17.001	17.171	0.048340
244.00	3.5887	44.832	0.022305	18.957	19.037	49.337	57.169	86.642	1173.0	-0.0089152	109.11	0.62315	0.027454	0.99793	1.0021	46.890	50.486	110.15	43.478	69.398	502.72	16.863	17.208	0.048617
245.00	3.6512	44.752	0.022345	19.042	19.124	49.502	57.118	86.817	1168.9	-0.0064820	108.63	0.62213	0.027219	1.0156	0.98461	46.888	50.483	110.02	43.633	69.857	502.56	16.725	17.244	0.048897
246.00	3.7145	44.672	0.022386	19.128	19.211	49.667	57.066	86.995	1164.8	-0.0040134	108.15	0.62110	0.026984	1.0336	0.96748	46.885	50.479	109.90	43.788	70.323	502.38	16.589	17.281	0.049179
247.00	3.7786	44.591	0.022426	19.213	19.298	49.832	57.016	87.176	1160.7	-0.0015087	107.68	0.62006	0.026749	1.0519	0.95069	46.882	50.475	109.77	43.944	70.795	502.20	16.455	17.318	0.049464
248.00	3.8436	44.509	0.022467	19.299	19.385	49.997	56.965	87.360	1156.6	0.0010329	107.21	0.61901	0.026514	1.0704	0.93422	46.879	50.470	109.64	44.101	71.273	502.02	16.321	17.355	0.049752
249.00	3.9095	44.428	0.022509	19.385	19.473	50.161	56.915	87.547	1152.4	0.0036122	106.75	0.61795	0.026278	1.0892	0.91808	46.876	50.465	109.52	44.258	71.759	501.82	16.189	17.392	0.050043
250.00	3.9762	44.345	0.022550	19.471	19.560	50.326	56.865	87.737	1148.2	0.0062300	106.28	0.61689	0.026043	1.1083	0.90226	46.872	50.460	109.39	44.416	72.251	501.62	16.059	17.429	0.050336
251.00	4.0438	44.263	0.022592	19.557	19.648	50.491	56.816	87.930	1144.1	0.0088870	105.82	0.61581	0.025808	1.1277	0.88674	46.868	50.454	109.26	44.575	72.751	501.41	15.929	17.467	0.050633
252.00	4.1122	44.180	0.022635	19.643	19.736	50.656	56.767	88.126	1139.8	0.011584	105.37	0.61473	0.025572	1.1474	0.87152	46.864	50.447	109.14	44.734	73.258	501.20	15.801	17.504	0.050933
253.00	4.1815	44.096	0.022678	19.729	19.824	50.820	56.719	88.325	1135.6	0.014322	104.91	0.61364	0.025337	1.1674	0.85660	46.859	50.441	109.01	44.895	73.772	500.98	15.674	17.542	0.051235
254.00	4.2518	44.012	0.022721	19.816	19.913	50.985	56.671	88.528	1131.3	0.017103	104.46	0.61254	0.025101	1.1877	0.84196	46.854	50.434	108.88	45.056	74.294	500.75	15.548	17.580	0.051541
255.00	4.3229	43.927	0.022765	19.903	20.001	51.150	56.623	88.734	1127.1	0.019926	104.01	0.61144	0.024866	1.2083	0.82759	46.848	50.426	108.76	45.217	74.825	500.51	15.424	17.617	0.051850
256.00	4.3949	43.843	0.022809	19.990	20.090	51.314	56.576	88.943	1122.8	0.022792	103.57	0.61032	0.024631	1.2292	0.81351	46.843	50.418	108.63	45.380	75.363	500.26	15.301	17.656	0.052163
257.00	4.4679	43.757	0.022853	20.077	20.179	51.479	56.529	89.156	1118.4	0.025704	103.13	0.60920	0.024395	1.2505	0.79969	46.837	50.410	108.50	45.543	75.909	500.01	15.178	17.694	0.052478
258.00	4.5417	43.671	0.022898	20.164	20.268	51.644	56.482	89.373	1114.1	0.028661	102.69	0.60807	0.024160	1.2721	0.78612	46.830	50.401	108.38	45.707	76.465	499.75	15.057	17.732	0.052797
259.00	4.6165	43.585	0.022944	20.251	20.357	51.808	56.436	89.593	1109.7	0.031665	102.25	0.60693	0.023924	1.2940	0.77282	46.824	50.391	108.25	45.872	77.029	499.48	14.938	17.771	0.053120
260.00	4.6923	43.498	0.022990	20.339	20.447	51.973	56.390	89.817	1105.3	0.034717	101.81	0.60578	0.023689	1.3162	0.75976	46.817	50.382	108.12	46.038	77.602	499.21	14.819	17.810	0.053446
261.00	4.7689	43.410	0.023036	20.426	20.536	52.138	56.345	90.045	1100.9	0.037818	101.38	0.60462	0.023453	1.3388	0.74695	46.809	50.371	107.99	46.205	78.184	498.92	14.701	17.848	0.053776
262.00	4.8466	43.323	0.023083	20.514	20.626	52.303	56.300	90.278	1096.5	0.040969	100.95	0.60346	0.023218	1.3617	0.73437	46.801	50.361	107.87	46.372	78.776	498.63	14.585	17.888	0.054110
263.00	4.9252	43.234	0.023130	20.602	20.716	52.467	56.256	90.514	1092.0	0.044172	100.52	0.60229	0.022983	1.3850	0.72203	46.793	50.349	107.74	46.540	79.377	498.33	14.469	17.927	0.054447
264.00	5.0047	43.145	0.023178	20.691	20.807	52.632	56.212	90.754	1087.5	0.047426	100.10	0.60110	0.022747	1.4086	0.70992	46.785	50.338	107.61	46.709	79.988	498.02	14.355	17.966	0.054789
265.00	5.0853	43.056	0.023226	20.779	20.897	52.797	56.169	90.999	1083.0	0.050735	99.672	0.59991	0.022512	1.4326	0.69802	46.776	50.325	107.48	46.880	80.610	497.71	14.242	18.006	0.055134
266.00	5.1668	42.966	0.023274	20.868	20.988	52.962	56.126	91.248	1078.5	0.054099	99.250	0.59871	0.022277	1.4570	0.68635	46.767	50.313	107.35	47.051	81.243	497.38	14.129	18.046	0.055484
267.00	5.2494	42.875	0.023323	20.956	21.079	53.127	56.083	91.502	1074.0	0.057519	98.831	0.59751	0.022042	1.4817	0.67488	46.757	50.300	107.22	47.222	81.886	497.05	14.018	18.086	0.055838
268.00	5.3329	42.784	0.023373	21.045	21.170	53.292	56.041	91.761	1069.4	0.060996	98.414	0.59629	0.021807	1.5069	0.66363	46.747	50.286	107.10	47.395	82.540	496.71	13.908	18.126	0.056196
269.00	5.4174	42.693	0.023423	21.134	21.261	53.457	55.999	92.024	1064.8	0.064533	97.998	0.59507	0.021572	1.5324	0.65258	46.736	50.272	106.97	47.569	83.206	496.36	13.798	18.167	0.056558
270.00	5.5030	42.601	0.023474	21.224	21.353	53.622	55.958	92.292	1060.2	0.068131	97.585	0.59383	0.021337	1.5583	0.64172	46.726	50.257	106.84	47.744	83.884	496.00	13.690	18.208	0.056926
271.00	5.5896	42.508	0.023525	21.313	21.445	53.788	55.918	92.566	1055.5	0.071790	97.174	0.59259	0.021102	1.5846	0.63106	46.714	50.242	106.71	47.919	84.574	495.64	13.583	18.249	0.057297
272.00	5.6772	42.415	0.023577	21.403	21.537	53.953	55.878	92.845	1050.9	0.075513	96.764	0.59134	0.020867	1.6114	0.62059	46.703	50.226	106.58	48.096	85.276	495.26	13.476	18.290	0.057674
273.00	5.7659	42.321	0.023629	21.493	21.629	54.118	55.838	93.129	1046.2	0.079302	96.357	0.59008	0.020632	1.6385	0.61031	46.691	50.210	106.45	48.274	85.991	494.87	13.371	18.331	0.058056
274.00	5.8556	42.226	0.023682	21.583	21.722	54.284	55.799	93.418	1041.4	0.083157	95.951	0.58882	0.020398	1.6661	0.60021	46.678	50.193	106.32	48.453	86.720	494.48	13.266	18.373	0.058442
275.00	5.9464	42.131	0.023735	21.674	21.815	54.449	55.760	93.713	1036.7	0.087081	95.547	0.58754	0.020163	1.6941	0.59029	46.665	50.176	106.19	48.632	87.462	494.08	13.163	18.415	0.058834
276.00	6.0383	42.036	0.023789	21.764	21.908	54.615	55.722	94.015	1031.9	0.091075	95.144	0.58626	0.019929	1.7225	0.58054	46.652	50.158	106.06	48.813	88.218	493.67	13.060	18.457	0.059232
277.00	6.1312	41.939	0.023844	21.855	22.001	54.781	55.685	94.322	1027.1	0.095142	94.743	0.58496	0.019695	1.7514	0.57096	46.638	50.139	105.93	48.995	88.989	493.25	12.958	18.500	0.059634
278.00	6.2252	41.842	0.023899	21.946	22.095	54.947	55.648	94.635	1022.3	0.099283	94.344	0.58366	0.019461	1.7808	0.56155	46.624	50.120	105.80	49.178	89.775	492.81	12.857	18.543	0.060043
279.00	6.3203	41.745	0.023955	22.037	22.189	55.113	55.611	94.955	1017.5	0.10350	93.946	0.58235	0.019227	1.8106	0.55230	46.610	50.100	105.66	49.362	90.576	492.37	12.756	18.586	0.060457
280.00	6.4166	41.647	0.024012	22.129	22.283	55.279	55.576	95.281	1012.6	0.10779	93.550	0.58103	0.018993	1.8409	0.54321	46.595	50.080	105.53	49.547	91.393	491.93	12.657	18.630	0.060878
281.00	6.5139	41.548	0.024069	22.220	22.377	55.445	55.540	95.615	1007.7	0.11217	93.155	0.57970	0.018759	1.8717	0.53427	46.579	50.059	105.40	49.734	92.227	491.47	12.558	18.673	0.061304
282.00	6.6124	41.448	0.024126	22.312	22.472	55.612	55.506	95.955	1002.8	0.11663	92.761	0.57836	0.018526	1.9030	0.52549	46.563	50.038	105.27	49.921	93.077	491.00	12.460	18.717	0.061737
283.00	6.7120	41.348	0.024185	22.405	22.567	55.779	55.472	96.303	997.84	0.12117	92.369	0.57701	0.018292	1.9348	0.51686	46.546	50.016	105.13	50.110	93.945	490.52	12.363	18.762	0.062177
284.00	6.8128	41.247	0.024244	22.497	22.662	55.945	55.438	96.658	992.86	0.12580	91.978	0.57565	0.018059	1.9670	0.50838	46.529	49.993	105.00	50.300	94.831	490.03	12.267	18.807	0.062623
285.00	6.9147	41.146	0.024304	22.590	22.758	56.112	55.406	97.020	987.86	0.13052	91.589	0.57429	0.017826	1.9999	0.50004	46.512	49.970	104.87	50.491	95.736	489.53	12.172	18.852	0.063076
286.00	7.0177	41.043	0.024364	22.683	22.854	56.279	55.373	97.391	982.83	0.13533	91.200	0.57291	0.017593	2.0332	0.49184	46.494	49.946	104.73	50.684	96.660	489.02	12.077	18.897	0.063537
287.00	7.1220	40.940	0.024426	22.776	22.950	56.447	55.342	97.770	977.78	0.14024	90.813	0.57153	0.017361	2.0671	0.48377	46.475	49.921	104.60	50.877	97.604	488.50	11.983	18.943	0.064005
288.00	7.2274	40.837	0.024488	22.869	23.046	56.614	55.311	98.158	972.69	0.14524	90.426	0.57013	0.017128	2.1015	0.47584	46.456	49.896	104.46	51.072	98.568	487.97	11.890	18.989	0.064481
289.00	7.3340	40.732	0.024551	22.963	23.143	56.782	55.281	98.554	967.58	0.15034	90.041	0.56873	0.016896	2.1365	0.46805	46.437	49.870	104.33	51.268	99.554	487.43	11.797	19.036	0.064964
290.00	7.4418	40.627	0.024614	23.057	23.240	56.950	55.252	98.960	962.44	0.15555	89.657	0.56732	0.016664	2.1721	0.46038	46.417	49.843	104.19	51.466	100.56	486.88	11.705	19.083	0.065456
291.00	7.5508	40.521	0.024679	23.151	23.338	57.118	55.223	99.375	957.27	0.16086	89.273	0.56589	0.016433	2.2083	0.45284	46.396	49.815	104.05	51.665	101.59	486.31	11.614	19.131	0.065957
292.00	7.6610	40.414	0.024744	23.246	23.436	57.286	55.195	99.799	952.07	0.16629	88.891	0.56446	0.016201	2.2451	0.44542	46.375	49.787	103.91	51.865	102.65	485.74	11.523	19.179	0.066466
293.00	7.7725	40.307	0.024810	23.341	23.534	57.455	55.168	100.23	946.84	0.17182	88.509	0.56302	0.015970	2.2825	0.43812	46.353	49.759	103.78	52.067	103.73	485.15	11.433	19.227	0.066985
294.00	7.8852	40.198	0.024877	23.436	23.632	57.624	55.142	100.68	941.59	0.17747	88.128	0.56157	0.015739	2.3205	0.43094	46.331	49.729	103.64	52.270	104.83	484.56	11.344	19.276	0.067513
295.00	7.9991	40.089	0.024945	23.531	23.731	57.793	55.116	101.14	936.30	0.18324	87.748	0.56011	0.015508	2.3592	0.42387	46.308	49.699	103.50	52.474	105.96	483.95	11.255	19.325	0.068051
296.00	8.1143	39.979	0.025013	23.627	23.830	57.962	55.091	101.60	930.98	0.18914	87.368	0.55864	0.015278	2.3985	0.41692	46.285	49.668	103.36	52.680	107.12	483.33	11.167	19.375	0.068599
297.00	8.2308	39.868	0.025083	23.723	23.930	58.132	55.067	102.08	925.63	0.19516	86.989	0.55715	0.015048	2.4385	0.41009	46.260	49.636	103.22	52.887	108.31	482.70	11.080	19.425	0.069157
298.00	8.3485	39.756	0.025153	23.820	24.030	58.302	55.044	102.57	920.25	0.20131	86.611	0.55566	0.014818	2.4792	0.40336	46.236	49.603	103.08	53.096	109.52	482.05	10.993	19.476	0.069726
299.00	8.4676	39.643	0.025225	23.916	24.130	58.472	55.022	103.08	914.84	0.20760	86.233	0.55416	0.014589	2.5206	0.39673	46.210	49.570	102.94	53.307	110.77	481.40	10.907	19.528	0.070307
300.00	8.5879	39.530	0.025298	24.013	24.231	58.643	55.001	103.60	909.40	0.21403	85.855	0.55265	0.014360	2.5627	0.39021	46.184	49.535	102.79	53.519	112.05	480.73	10.821	19.580	0.070900
301.00	8.7095	39.415	0.025371	24.111	24.332	58.814	54.980	104.13	903.93	0.22060	85.478	0.55112	0.014131	2.6056	0.38380	46.158	49.500	102.65	53.733	113.36	480.05	10.736	19.632	0.071504
302.00	8.8325	39.299	0.025446	24.209	24.433	58.985	54.961	104.67	898.42	0.22732	85.102	0.54959	0.013902	2.6492	0.37748	46.130	49.464	102.51	53.948	114.71	479.35	10.651	19.685	0.072122
303.00	8.9568	39.183	0.025521	24.307	24.535	59.156	54.942	105.23	892.88	0.23420	84.725	0.54804	0.013674	2.6935	0.37126	46.102	49.428	102.36	54.165	116.09	478.65	10.567	19.739	0.072753
304.00	9.0824	39.065	0.025598	24.405	24.638	59.328	54.925	105.81	887.31	0.24123	84.349	0.54649	0.013447	2.7387	0.36514	46.074	49.390	102.22	54.384	117.51	477.93	10.484	19.794	0.073397
305.00	9.2094	38.947	0.025676	24.504	24.740	59.501	54.909	106.40	881.70	0.24843	83.973	0.54492	0.013219	2.7847	0.35911	46.044	49.352	102.07	54.604	118.97	477.20	10.401	19.849	0.074056
306.00	9.3378	38.827	0.025755	24.603	24.844	59.673	54.893	107.00	876.06	0.25580	83.597	0.54335	0.012992	2.8315	0.35317	46.014	49.312	101.92	54.826	120.47	476.45	10.318	19.904	0.074730
307.00	9.4675	38.707	0.025835	24.703	24.947	59.847	54.879	107.63	870.38	0.26335	83.221	0.54176	0.012766	2.8792	0.34732	45.983	49.272	101.77	55.050	122.01	475.69	10.236	19.961	0.075419
308.00	9.5986	38.585	0.025917	24.803	25.052	60.020	54.866	108.27	864.67	0.27108	82.846	0.54016	0.012540	2.9277	0.34156	45.952	49.230	101.63	55.276	123.60	474.91	10.154	20.018	0.076125
309.00	9.7311	38.462	0.026000	24.903	25.156	60.194	54.854	108.94	858.92	0.27899	82.470	0.53855	0.012314	2.9771	0.33589	45.919	49.188	101.48	55.504	125.23	474.12	10.073	20.076	0.076847
310.00	9.8651	38.338	0.026084	25.004	25.261	60.369	54.844	109.62	853.13	0.28711	82.094	0.53692	0.012089	3.0275	0.33030	45.886	49.145	101.32	55.733	126.92	473.32	9.9925	20.135	0.077587
